##BLOCKS= 5          
Note:
                                                                     SOFTmax  PRO Default Protocol

Overview
This basic protocol is a starting point for creating your own protocol/data files.  This file contains the groups Standard, Unknowns, and Blank.  (Additional groups can be added using  New... from the template dialog group menu.)  The Standards are plotted on a Standard Curve.  The Unknowns are interpolated from the linear fit of the Standard Curve and the calculated concentrations are shown in the unknowns group table.

This file can be modified and saved as a new protocol file for future use.  From the File menu select Save As... .  In the "Save This Document As" type box, enter a name for the protocol file.  Click on the Protocol File radio button.  Choose Save.

Assay type:                                Endpoint read at 405 nm.
Number of plates:                   1
Template group types:            Standard (in mg/ml), and Unknowns

Instrument Parameters
Reading mode:                         Endpoint
Wavelength(s):                        L1 = 405 nm
Automix:                                   Off
Auto Calibrate:                         On
Plate pre-read:                           Off

Raw Data Reduction Parameters
Wavelength combination:    L1
Subtract plate blank:                Off

Data Display Option
Option:                                       Raw OD
~End
Plate:	OD600	1.3	PlateFormat	Endpoint	Absorbance	Raw	TRUE	1						1	600	1	12	96	1	8	None	
	Temperature(¡C)	1	2	3	4	5	6	7	8	9	10	11	12		
	23.10	0.1118	0.1207	0.1236	0.1143	0.1116	0.1051	0.1114	0.1154	0.117	0.1164	0.1194	0.1193		
		0.1392	0.1315	0.135	0.1237	0.1308	0.1288	0.1433	0.1467	0.1527	0.1432	0.1562	0.1523		
		0.1168	0.1191	0.1225	0.113	0.1182	0.1186	0.1198	0.1218	0.1246	0.1153	0.1316	0.1227		
		0.1142	0.1216	0.1209	0.1174	0.1223	0.118	0.1205	0.1193	0.1215	0.1186	0.122	0.1282		
		0.1146	0.1215	0.13	0.1245	0.1201	0.1197	0.1212	0.123	0.1225	0.1202	0.1213	0.1449		
		0.1143	0.1187	0.13	0.126	0.1223	0.1254	0.1654	0.1271	0.1227	0.118	0.1259	0.139		
		0.1155	0.1205	0.1238	0.1212	0.1147	0.1142	0.1243	0.1246	0.1234	0.1205	0.1175	0.1258		
		0.1269	0.1241	0.1312	0.1225	0.1932	0.1205	0.1135	0.1245	0.1234	0.0423	0.0403	0.0402		
		

	23.10	0.0466	0.0479	0.0509	0.0474	0.0472	0.0471	0.0466	0.0476	0.0604	0.0461	0.0463	0.0469		
		0.0478	0.0471	0.047	0.0465	0.0467	0.0464	0.0466	0.0466	0.0466	0.0468	0.0462	0.0465		
		0.0464	0.0461	0.0467	0.0469	0.0469	0.0474	0.0475	0.0471	0.0464	0.0478	0.0474	0.0456		
		0.0465	0.0463	0.0463	0.046	0.0467	0.0471	0.0464	0.0473	0.0461	0.0465	0.0462	0.0468		
		0.0468	0.0468	0.0472	0.0466	0.047	0.0465	0.0478	0.0472	0.0467	0.0465	0.0471	0.0467		
		0.0463	0.0466	0.0467	0.0461	0.0462	0.0468	0.047	0.0468	0.0462	0.0464	0.0463	0.0461		
		0.0464	0.0464	0.0504	0.0473	0.0473	0.0471	0.0459	0.046	0.0471	0.0476	0.0463	0.0457		
		0.0465	0.0469	0.0467	0.0463	0.0468	0.046	0.0469	0.0468	0.0474	0.0459	0.0464	0.0457		
		
~End
Plate:	Kinetic	1.3	PlateFormat	Kinetic	Absorbance	Raw	FALSE	41	1200	30				1	405	1	12	96	1	8	None	
Time(hh:mm:ss)	Temperature(¡C)	1	2	3	4	5	6	7	8	9	10	11	12		
0:00	23.30	0.1662	0.1716	0.1806	0.1379	0.1365	0.1278	0.1529	0.1495	0.1508	0.1607	0.1693	0.1739		
		0.2225	0.2236	0.2339	0.2492	0.2685	0.2835	0.2394	0.2258	0.2387	0.2404	0.2418	0.2414		
		0.1611	0.1467	0.166	0.1998	0.1887	0.1843	0.1847	0.1656	0.171	0.1766	0.2006	0.1665		
		0.1391	0.1598	0.1454	0.1885	0.185	0.1572	0.1871	0.1852	0.1851	0.1981	0.1891	0.1916		
		0.1077	0.1259	0.1326	0.1875	0.1864	0.1911	0.1829	0.1998	0.1603	0.24	0.2047	0.2284		
		0.1851	0.1803	0.1948	0.1868	0.1865	0.184	0.2373	0.1419	0.1453	0.1784	0.1833	0.1924		
		0.1445	0.1545	0.1643	0.1945	0.2022	0.211	0.248	0.2383	0.2043	0.2199	0.2086	0.23		
		0.1651	0.2047	0.2005	0.1701	0.3267	0.1661	0.1437	0.1525	0.1494	0.0889	0.087	0.0886		
		
0:30	23.30	0.2111	0.213	0.2302	0.1562	0.1528	0.1406	0.1867	0.1815	0.1818	0.1853	0.2075	0.2138		
		0.2405	0.2528	0.2647	0.301	0.3345	0.3534	0.2566	0.2441	0.2559	0.262	0.258	0.2583		
		0.1869	0.1699	0.1875	0.2627	0.2472	0.2299	0.2086	0.195	0.1981	0.2131	0.2377	0.2025		
		0.1453	0.1631	0.1467	0.2338	0.2253	0.2022	0.2179	0.2235	0.2215	0.2303	0.2208	0.2176		
		0.1066	0.1252	0.131	0.2196	0.2212	0.2252	0.2138	0.2328	0.2011	0.3308	0.2644	0.2866		
		0.2351	0.2219	0.2441	0.214	0.2123	0.2089	0.2596	0.1623	0.1562	0.1938	0.1963	0.204		
		0.1687	0.18	0.1867	0.244	0.2555	0.2892	0.3275	0.3086	0.2534	0.2938	0.267	0.2906		
		0.2057	0.2754	0.2591	0.2091	0.3541	0.1946	0.1576	0.1696	0.1667	0.0882	0.0866	0.0889		
		
1:00	23.30	0.2518	0.2553	0.2819	0.1749	0.1652	0.1545	0.221	0.2137	0.2118	0.209	0.2452	0.2545		
		0.2652	0.2832	0.2957	0.3528	0.4034	0.4259	0.2724	0.2628	0.2718	0.2812	0.2739	0.2747		
		0.2544	0.1912	0.2085	0.3243	0.3017	0.278	0.2337	0.2253	0.2275	0.2491	0.2747	0.2366		
		0.1504	0.1632	0.1462	0.2804	0.266	0.2481	0.2501	0.2627	0.2595	0.2644	0.2516	0.2427		
		0.1014	0.1224	0.1223	0.2526	0.2571	0.2614	0.245	0.2661	0.2432	0.4263	0.3277	0.3459		
		0.287	0.266	0.2947	0.2426	0.2394	0.2364	0.2815	0.1818	0.1642	0.2092	0.2089	0.2146		
		0.1931	0.2044	0.208	0.2945	0.3102	0.3696	0.4092	0.3808	0.303	0.3679	0.3281	0.3527		
		0.249	0.3473	0.3183	0.2467	0.387	0.2251	0.17	0.186	0.1831	0.0881	0.0867	0.0889		
		
1:30	23.30	0.2914	0.2987	0.3334	0.1937	0.1803	0.1674	0.2559	0.2462	0.2411	0.2349	0.2837	0.2964		
		0.292	0.3136	0.3279	0.4058	0.4732	0.5012	0.2891	0.2817	0.2883	0.3003	0.291	0.2914		
		0.3557	0.2144	0.2316	0.3879	0.3535	0.3271	0.2615	0.2568	0.2573	0.2874	0.3143	0.2759		
		0.1577	0.1698	0.1509	0.3293	0.3109	0.2956	0.2845	0.3044	0.2998	0.3023	0.2861	0.2689		
		0.1016	0.1196	0.1161	0.2883	0.2941	0.2992	0.2787	0.3002	0.2877	0.5271	0.3944	0.4082		
		0.3395	0.3115	0.3485	0.2739	0.2679	0.2641	0.3058	0.2033	0.1744	0.2251	0.223	0.225		
		0.2188	0.2316	0.231	0.3487	0.3687	0.452	0.4946	0.4562	0.3539	0.4461	0.3909	0.4169		
		0.2922	0.4189	0.3786	0.2858	0.421	0.2559	0.1848	0.2029	0.2008	0.0877	0.0868	0.0887		
		
2:00	23.30	0.3334	0.3431	0.3858	0.213	0.1957	0.1805	0.2916	0.2801	0.2713	0.2599	0.3238	0.3399		
		0.3195	0.3462	0.3607	0.4591	0.5411	0.5779	0.3056	0.3023	0.3059	0.3206	0.3085	0.3087		
		0.5536	0.239	0.2566	0.4527	0.4054	0.3782	0.2888	0.29	0.288	0.3266	0.3553	0.3158		
		0.1669	0.1754	0.1569	0.3787	0.355	0.343	0.3192	0.3479	0.3407	0.3397	0.3237	0.2965		
		0.1006	0.1168	0.114	0.3232	0.3321	0.3376	0.3123	0.3385	0.3314	0.6295	0.4625	0.4736		
		0.3929	0.3582	0.4029	0.3048	0.2965	0.2926	0.3294	0.2252	0.1858	0.2422	0.2385	0.2378		
		0.2439	0.2571	0.2555	0.4008	0.4258	0.534	0.5801	0.5349	0.4071	0.5266	0.4575	0.4829		
		0.3372	0.4907	0.44	0.3235	0.4541	0.2875	0.1986	0.2208	0.2185	0.0875	0.0867	0.0885		
		
2:30	23.40	0.3738	0.3882	0.438	0.2326	0.2113	0.1944	0.3269	0.3128	0.3028	0.2856	0.3642	0.3824		
		0.3462	0.3775	0.3925	0.5118	0.6073	0.6548	0.3227	0.3217	0.3248	0.3427	0.3259	0.3268		
		0.6378	0.263	0.2817	0.5191	0.4565	0.4305	0.3161	0.3233	0.3206	0.3668	0.3962	0.3531		
		0.1758	0.182	0.1636	0.4301	0.4006	0.3912	0.3556	0.392	0.3836	0.3793	0.3615	0.3251		
		0.1013	0.1159	0.1138	0.3592	0.3725	0.3781	0.3474	0.3767	0.3752	0.7323	0.5324	0.5388		
		0.4462	0.4048	0.4583	0.336	0.3266	0.3219	0.3533	0.2483	0.1969	0.259	0.2526	0.25		
		0.2684	0.283	0.2788	0.4536	0.484	0.6164	0.6683	0.613	0.4633	0.6079	0.5243	0.5518		
		0.381	0.5617	0.5012	0.3619	0.4882	0.3197	0.2131	0.2377	0.2377	0.0876	0.0867	0.0885		
		
3:00	23.40	0.4144	0.4331	0.4912	0.2518	0.2266	0.2083	0.3629	0.3456	0.3334	0.3114	0.4051	0.4258		
		0.3732	0.4096	0.4249	0.5664	0.6748	0.7318	0.3404	0.3425	0.3429	0.3645	0.3431	0.3439		
		0.6981	0.2872	0.3079	0.5861	0.5082	0.4841	0.3448	0.3574	0.3532	0.4076	0.4384	0.3919		
		0.1847	0.1901	0.1702	0.4824	0.447	0.4396	0.3944	0.438	0.4266	0.4206	0.3994	0.3541		
		0.1014	0.1159	0.113	0.3967	0.4146	0.4208	0.3836	0.4164	0.4185	0.8361	0.6023	0.6039		
		0.4999	0.4526	0.5145	0.3685	0.3578	0.3522	0.3774	0.2707	0.2083	0.2764	0.2674	0.2603		
		0.2935	0.3095	0.303	0.5084	0.5429	0.7008	0.7586	0.6941	0.5197	0.6904	0.5918	0.6231		
		0.4248	0.6325	0.5629	0.4004	0.5225	0.3516	0.228	0.255	0.2565	0.0874	0.0867	0.0885		
		
3:30	23.40	0.4553	0.4781	0.544	0.2714	0.2427	0.2225	0.3981	0.379	0.3644	0.3381	0.446	0.4695		
		0.4006	0.4413	0.4573	0.6198	0.7429	0.808	0.3579	0.3628	0.3613	0.3869	0.3612	0.362		
		0.6353	0.3117	0.3341	0.6531	0.5615	0.5385	0.3756	0.3928	0.3867	0.4494	0.4819	0.4317		
		0.1945	0.1994	0.1777	0.5356	0.494	0.4874	0.4338	0.4846	0.4711	0.464	0.4381	0.3841		
		0.102	0.1166	0.1123	0.4346	0.4576	0.4649	0.4215	0.4574	0.4627	0.9429	0.6727	0.6711		
		0.5518	0.4992	0.5691	0.3997	0.3879	0.3819	0.4024	0.2914	0.2191	0.2922	0.2807	0.2728		
		0.3191	0.3364	0.3276	0.5624	0.6024	0.7832	0.8483	0.7752	0.5761	0.7718	0.6621	0.6987		
		0.4681	0.7035	0.6249	0.4388	0.5574	0.3833	0.2427	0.2728	0.2754	0.0876	0.0869	0.0883		
		
4:00	23.40	0.4956	0.522	0.5955	0.2911	0.2587	0.2366	0.4328	0.4119	0.3952	0.3655	0.487	0.5144		
		0.428	0.4722	0.4895	0.6727	0.8091	0.8837	0.3765	0.3836	0.3795	0.4101	0.3803	0.38		
		0.4999	0.3362	0.3605	0.7197	0.6149	0.5929	0.407	0.4277	0.4206	0.491	0.5254	0.471		
		0.2047	0.2095	0.1857	0.5887	0.5409	0.5341	0.4737	0.5317	0.5158	0.5088	0.4769	0.4143		
		0.1029	0.1172	0.1123	0.4733	0.5002	0.5096	0.4595	0.4995	0.5069	1.0476	0.743	0.7371		
		0.6053	0.5461	0.6247	0.4334	0.4194	0.4138	0.4283	0.3139	0.2318	0.3109	0.2963	0.2877		
		0.3445	0.363	0.3526	0.6164	0.6619	0.8649	0.9392	0.8573	0.6325	0.8536	0.7345	0.7724		
		0.5106	0.7731	0.6854	0.4774	0.5916	0.4154	0.2578	0.2906	0.2938	0.0877	0.0867	0.0882		
		
4:30	23.40	0.5361	0.566	0.6467	0.3103	0.274	0.251	0.4676	0.4447	0.4254	0.393	0.5281	0.5592		
		0.4549	0.5025	0.5221	0.7239	0.8731	0.9583	0.3942	0.4039	0.3983	0.4329	0.3982	0.3989		
		0.4642	0.3602	0.3869	0.7853	0.6673	0.6463	0.4385	0.4628	0.4528	0.5331	0.5682	0.5101		
		0.2148	0.2193	0.1941	0.641	0.5872	0.5803	0.5142	0.5789	0.5601	0.5539	0.5168	0.4457		
		0.1039	0.1185	0.1128	0.5123	0.5425	0.5549	0.4987	0.543	0.55	1.1511	0.814	0.8042		
		0.6581	0.5926	0.6806	0.467	0.4514	0.4464	0.4551	0.3362	0.2461	0.3299	0.3123	0.3029		
		0.3698	0.3893	0.3774	0.6696	0.722	0.9446	1.0307	0.9399	0.6897	0.9345	0.8071	0.8494		
		0.5522	0.8425	0.7455	0.5161	0.6255	0.4476	0.2733	0.3091	0.3121	0.0877	0.0866	0.0882		
		
5:00	23.40	0.5761	0.6093	0.6977	0.3299	0.2891	0.2653	0.5019	0.4762	0.4556	0.4208	0.5671	0.6037		
		0.4817	0.5337	0.5538	0.7767	0.9376	1.0328	0.4128	0.4253	0.4173	0.4561	0.4176	0.4172		
		0.4571	0.3838	0.4132	0.8515	0.7193	0.6993	0.4706	0.4979	0.4856	0.5752	0.6116	0.5498		
		0.2248	0.2294	0.2025	0.6932	0.6332	0.6259	0.5548	0.6266	0.6047	0.5994	0.5572	0.4775		
		0.1047	0.1196	0.1135	0.5521	0.5853	0.6001	0.5382	0.5875	0.593	1.2541	0.8855	0.8727		
		0.7107	0.6391	0.7354	0.5016	0.4843	0.4797	0.4821	0.3584	0.2592	0.3498	0.3291	0.3162		
		0.3949	0.4157	0.4024	0.7234	0.7812	1.0236	1.1222	1.023	0.7459	1.0139	0.8799	0.929		
		0.5941	0.9095	0.8069	0.5548	0.6592	0.4799	0.2888	0.3276	0.3305	0.0876	0.0866	0.0881		
		
5:30	23.40	0.6147	0.6521	0.7469	0.3489	0.3047	0.2794	0.5358	0.5083	0.4857	0.4485	0.6072	0.648		
		0.5081	0.5637	0.5857	0.8265	1	1.1065	0.4309	0.4461	0.4363	0.4789	0.4364	0.4365		
		0.4812	0.4069	0.4392	0.9149	0.7716	0.7518	0.5034	0.5329	0.519	0.6171	0.6553	0.59		
		0.236	0.2411	0.2113	0.7441	0.6785	0.672	0.5953	0.6735	0.6487	0.645	0.5979	0.5096		
		0.1056	0.1212	0.1148	0.5915	0.628	0.6448	0.5776	0.6325	0.6358	1.3542	0.9554	0.9407		
		0.7622	0.685	0.7893	0.5359	0.5172	0.513	0.5096	0.3803	0.2724	0.3703	0.3462	0.3287		
		0.4195	0.4416	0.427	0.7755	0.8397	1.0996	1.2117	1.1047	0.8017	1.0909	0.9525	1.009		
		0.6361	0.9754	0.8666	0.593	0.6927	0.5115	0.3044	0.346	0.3494	0.0876	0.0866	0.0882		
		
6:00	23.40	0.6531	0.6953	0.796	0.368	0.3202	0.2938	0.5696	0.5396	0.5152	0.4758	0.648	0.6926		
		0.5344	0.5936	0.6172	0.8759	1.0617	1.1786	0.4498	0.4666	0.4552	0.5015	0.455	0.454		
		0.5209	0.4297	0.4653	0.9779	0.8219	0.8048	0.5368	0.5674	0.5523	0.6586	0.6994	0.6291		
		0.2459	0.2517	0.2202	0.7947	0.7235	0.7172	0.6356	0.7195	0.6922	0.6909	0.6385	0.5417		
		0.1068	0.1229	0.1157	0.6309	0.6705	0.6897	0.6173	0.677	0.6776	1.4512	1.0256	1.0071		
		0.8136	0.7304	0.843	0.5703	0.5503	0.5467	0.5377	0.402	0.2851	0.3911	0.3637	0.3417		
		0.4437	0.4675	0.452	0.8274	0.8982	1.1746	1.3002	1.1851	0.8577	1.1695	1.0247	1.0892		
		0.6775	1.0413	0.9256	0.6307	0.7261	0.5429	0.3199	0.3644	0.3682	0.0877	0.0867	0.0878		
		
6:30	23.40	0.693	0.7368	0.8437	0.387	0.3361	0.3078	0.6029	0.5705	0.5444	0.503	0.6896	0.7367		
		0.5603	0.6229	0.6478	0.9252	1.1218	1.2487	0.4683	0.4872	0.474	0.5242	0.4741	0.4741		
		0.597	0.4528	0.4914	1.0396	0.8715	0.8562	0.5699	0.6012	0.5853	0.6998	0.7426	0.6681		
		0.2558	0.2623	0.2293	0.8457	0.7684	0.7619	0.6759	0.7651	0.7354	0.7368	0.6801	0.5745		
		0.1078	0.1246	0.1168	0.6701	0.7132	0.7343	0.6571	0.7217	0.7193	1.5466	1.0954	1.073		
		0.8649	0.7748	0.8965	0.6048	0.5833	0.5807	0.5659	0.4238	0.2982	0.4122	0.3814	0.3559		
		0.4677	0.4932	0.4766	0.8795	0.9559	1.2476	1.386	1.2636	0.9139	1.2458	1.0979	1.1691		
		0.7185	1.1048	0.983	0.6682	0.7586	0.5741	0.3353	0.383	0.387	0.0878	0.0867	0.0879		
		
7:00	23.40	0.7313	0.7777	0.8904	0.4054	0.3518	0.3219	0.6357	0.6016	0.5738	0.5301	0.7291	0.7804		
		0.5864	0.6521	0.6792	0.9731	1.1807	1.3178	0.4867	0.5075	0.4933	0.5465	0.4926	0.4928		
		0.6693	0.4759	0.517	1.1005	0.9205	0.9069	0.6031	0.6348	0.6183	0.7415	0.7872	0.7073		
		0.2657	0.2729	0.2391	0.8949	0.8131	0.806	0.7161	0.8102	0.7785	0.7827	0.7216	0.6068		
		0.1088	0.1265	0.1184	0.7091	0.7558	0.7783	0.6962	0.7661	0.7601	1.6376	1.1633	1.1393		
		0.9151	0.8184	0.9481	0.6391	0.6169	0.6146	0.5938	0.4452	0.3111	0.433	0.3993	0.3703		
		0.4914	0.5183	0.5004	0.9304	1.0134	1.3188	1.4693	1.3409	0.9693	1.322	1.1695	1.25		
		0.7591	1.1682	1.0403	0.7051	0.7923	0.6047	0.3505	0.4014	0.4059	0.0875	0.0868	0.0879		
		
7:30	23.40	0.7694	0.8182	0.9369	0.4243	0.3669	0.3358	0.6686	0.6316	0.6024	0.5573	0.7681	0.8232		
		0.6123	0.6811	0.7094	1.0204	1.2437	1.3863	0.5051	0.5281	0.5119	0.5691	0.5119	0.5114		
		0.7081	0.4985	0.5423	1.1607	0.968	0.957	0.6368	0.6688	0.651	0.7817	0.83	0.7459		
		0.2756	0.2836	0.2477	0.9437	0.8584	0.8502	0.756	0.8556	0.8205	0.8289	0.7628	0.6389		
		0.1098	0.1281	0.1194	0.7479	0.7972	0.8218	0.7356	0.81	0.8005	1.7264	1.2299	1.2052		
		0.965	0.8627	0.999	0.6733	0.6496	0.648	0.6221	0.4667	0.3237	0.454	0.4171	0.3849		
		0.5151	0.5433	0.5249	0.9803	1.0689	1.3876	1.5519	1.4167	1.0243	1.3954	1.2401	1.3303		
		0.8001	1.2309	1.0978	0.7415	0.8249	0.6353	0.3656	0.4197	0.4242	0.0875	0.0867	0.0878		
		
8:00	23.40	0.8062	0.8576	0.9828	0.4429	0.3826	0.3495	0.702	0.6614	0.6313	0.5835	0.8086	0.8653		
		0.6378	0.7098	0.7409	1.0678	1.3022	1.4524	0.5235	0.5481	0.531	0.5913	0.5302	0.5306		
		0.8113	0.5212	0.5672	1.2193	1.015	1.0065	0.6702	0.7026	0.6839	0.8217	0.8724	0.7851		
		0.2856	0.2943	0.2563	0.9924	0.9022	0.8927	0.7954	0.8999	0.8635	0.8741	0.804	0.6712		
		0.1109	0.13	0.1205	0.7863	0.8383	0.8665	0.7741	0.8536	0.8403	1.8123	1.2945	1.2694		
		1.0136	0.9055	1.0496	0.7076	0.6825	0.6814	0.6501	0.4881	0.3366	0.4753	0.4351	0.3997		
		0.5384	0.568	0.5489	1.0301	1.1232	1.4552	1.6318	1.491	1.0783	1.4659	1.3108	1.4084		
		0.8394	1.2927	1.1542	0.7787	0.8569	0.6658	0.3808	0.438	0.443	0.0876	0.0866	0.0878		
		
8:30	23.40	0.8433	0.896	1.0274	0.4612	0.3981	0.3633	0.7339	0.6918	0.6601	0.6098	0.848	0.9062		
		0.6627	0.7382	0.7706	1.1133	1.3606	1.5166	0.5415	0.5678	0.5496	0.6131	0.5477	0.5486		
		0.8646	0.5437	0.5919	1.2767	1.0613	1.0549	0.7025	0.7371	0.7162	0.8612	0.9138	0.8226		
		0.2955	0.3048	0.2646	1.0398	0.9449	0.9343	0.8338	0.9432	0.9044	0.9184	0.8452	0.7029		
		0.1122	0.132	0.122	0.8242	0.8801	0.9097	0.8125	0.8978	0.8808	1.8936	1.3577	1.3328		
		1.0606	0.9476	1.0993	0.7412	0.7147	0.7145	0.6775	0.5092	0.349	0.4958	0.4528	0.4143		
		0.5615	0.5923	0.573	1.0789	1.1766	1.5203	1.7086	1.5638	1.1309	1.5362	1.3771	1.4853		
		0.8786	1.352	1.2084	0.8141	0.889	0.6956	0.3954	0.4561	0.461	0.0876	0.0865	0.0879		
		
9:00	23.50	0.8797	0.9341	1.0706	0.4795	0.4134	0.3769	0.7656	0.721	0.6892	0.6362	0.887	0.9474		
		0.6877	0.7675	0.8	1.1579	1.4096	1.5788	0.5594	0.587	0.5678	0.6353	0.5672	0.5668		
		0.8954	0.5658	0.6164	1.3327	1.1067	1.1024	0.7346	0.77	0.7482	0.8997	0.9553	0.8595		
		0.3052	0.315	0.273	1.0867	0.9872	0.9753	0.8728	0.9857	0.9449	0.962	0.8851	0.7343		
		0.1132	0.1336	0.1233	0.8625	0.9198	0.9521	0.8503	0.9401	0.9195	1.9728	1.4203	1.3945		
		1.1069	0.9884	1.1482	0.7741	0.7466	0.7469	0.705	0.5298	0.3618	0.5165	0.4711	0.4291		
		0.5843	0.6164	0.5966	1.127	1.2291	1.5846	1.7842	1.6344	1.1829	1.6061	1.4425	1.5615		
		0.9169	1.4122	1.2623	0.8486	0.9203	0.7246	0.41	0.4738	0.4791	0.0878	0.0867	0.0879		
		
9:30	23.50	0.916	0.9714	1.1127	0.4974	0.4283	0.3906	0.7962	0.7494	0.7169	0.6634	0.9241	0.9885		
		0.7119	0.7954	0.8298	1.203	1.4639	1.6399	0.5774	0.6056	0.586	0.6565	0.5854	0.5847		
		0.9222	0.5879	0.6405	1.388	1.1513	1.1493	0.7676	0.8026	0.781	0.9378	0.996	0.8964		
		0.3148	0.3252	0.2814	1.1329	1.0289	1.0158	0.9108	1.0279	0.9848	1.0052	0.9244	0.7658		
		0.1144	0.1356	0.1245	0.8993	0.9596	0.994	0.8891	0.9828	0.958	2.0503	1.4828	1.4561		
		1.1528	1.0294	1.1963	0.8069	0.7786	0.779	0.7323	0.5504	0.3743	0.537	0.4891	0.4438		
		0.6076	0.6403	0.62	1.1746	1.2809	1.6467	1.8582	1.7035	1.2339	1.6735	1.5064	1.6356		
		0.9553	1.4701	1.3148	0.883	0.9508	0.7532	0.4246	0.4912	0.4972	0.0877	0.0867	0.0879		
		
10:00	23.50	0.9499	1.008	1.1551	0.5153	0.443	0.4037	0.8266	0.7775	0.7436	0.6888	0.9605	1.0274		
		0.7368	0.8231	0.8589	1.2465	1.5167	1.7	0.5948	0.6254	0.6047	0.6778	0.6035	0.6027		
		0.9637	0.6101	0.6647	1.4417	1.1952	1.1955	0.7992	0.8347	0.8123	0.9752	1.0365	0.9323		
		0.3244	0.3353	0.2897	1.1788	1.0698	1.0561	0.9484	1.0695	1.0244	1.0475	0.9635	0.7964		
		0.1156	0.1379	0.1257	0.9356	0.9986	1.0352	0.9261	1.0246	0.9962	2.1238	1.5424	1.5173		
		1.1981	1.0696	1.244	0.8398	0.8101	0.8108	0.7595	0.5709	0.3865	0.5576	0.5069	0.4584		
		0.6302	0.6642	0.6433	1.2212	1.3323	1.7072	1.929	1.7695	1.2846	1.739	1.5695	1.7087		
		0.9931	1.5264	1.3661	0.9172	0.9822	0.7828	0.4389	0.5085	0.5148	0.0877	0.0866	0.0879		
		
10:30	23.50	0.9847	1.0447	1.1966	0.5328	0.4575	0.4171	0.8566	0.8051	0.7702	0.7142	0.9964	1.0673		
		0.7606	0.8505	0.8868	1.2902	1.5693	1.7576	0.6123	0.6441	0.6222	0.6992	0.6209	0.6199		
		0.9587	0.6321	0.6885	1.4941	1.2384	1.2408	0.8306	0.8653	0.8432	1.0128	1.0759	0.9677		
		0.3339	0.3453	0.2978	1.224	1.1103	1.0956	0.9855	1.1097	1.0634	1.0895	1.0022	0.8268		
		0.1166	0.1393	0.127	0.9713	1.0372	1.0755	0.9628	1.0651	1.0339	2.1944	1.6011	1.576		
		1.242	1.1088	1.2911	0.8732	0.8411	0.8419	0.7868	0.5911	0.3986	0.5778	0.5247	0.4728		
		0.6528	0.6877	0.6665	1.2674	1.3823	1.7662	1.9983	1.835	1.3354	1.8047	1.6317	1.7805		
		1.0307	1.5814	1.4175	0.9507	1.0128	0.8114	0.4533	0.5258	0.5322	0.0879	0.0866	0.088		
		
11:00	23.50	1.0191	1.0804	1.2383	0.5509	0.472	0.4302	0.8864	0.8332	0.797	0.7388	1.0329	1.1069		
		0.7839	0.8773	0.9143	1.3336	1.6216	1.8151	0.6299	0.6634	0.6402	0.7213	0.6383	0.6376		
		0.9732	0.6534	0.7124	1.5455	1.2806	1.2851	0.8615	0.8966	0.8739	1.0492	1.1149	1.0026		
		0.3433	0.3549	0.3059	1.2682	1.1505	1.134	1.022	1.1495	1.1022	1.1301	1.0404	0.8577		
		0.1175	0.1412	0.1283	1.0071	1.0753	1.1153	0.9987	1.1055	1.0706	2.2595	1.6583	1.6344		
		1.2851	1.1477	1.3369	0.905	0.8727	0.8736	0.8134	0.6115	0.4107	0.5974	0.5427	0.4869		
		0.6748	0.7122	0.6893	1.313	1.4317	1.8247	2.0655	1.8976	1.3844	1.8664	1.6916	1.8515		
		1.0671	1.635	1.4671	0.9838	1.0427	0.8399	0.4674	0.5428	0.5501	0.0878	0.087	0.088		
		
11:30	23.50	1.0534	1.1156	1.2795	0.5688	0.4866	0.4436	0.9159	0.8605	0.8236	0.7637	1.0681	1.1454		
		0.808	0.9042	0.9427	1.3752	1.6715	1.8696	0.6472	0.6817	0.6572	0.7419	0.6562	0.6546		
		0.9853	0.6742	0.7357	1.5958	1.3224	1.3288	0.8919	0.9274	0.9036	1.0849	1.1538	1.0357		
		0.3523	0.3648	0.3144	1.3122	1.1896	1.1725	1.0578	1.1889	1.14	1.1706	1.0776	0.8867		
		0.1186	0.143	0.1295	1.0424	1.1128	1.1545	1.0339	1.1455	1.1069	2.3261	1.7129	1.6902		
		1.328	1.1858	1.3818	0.9365	0.9031	0.9041	0.8395	0.6314	0.4229	0.6172	0.5607	0.5012		
		0.6978	0.735	0.7123	1.3572	1.4799	1.8811	2.1299	1.959	1.4324	1.9272	1.7495	1.9183		
		1.103	1.6869	1.5156	1.0158	1.0725	0.8678	0.4812	0.5594	0.5674	0.0879	0.0869	0.0883		
		
12:00	23.50	1.0865	1.1506	1.3191	0.586	0.5009	0.4566	0.9462	0.8878	0.8497	0.7884	1.1035	1.1841		
		0.8309	0.93	0.9704	1.4166	1.7193	1.9236	0.664	0.7001	0.6751	0.7626	0.6735	0.6715		
		0.9943	0.6953	0.7588	1.6456	1.3632	1.3724	0.9222	0.9576	0.9331	1.1201	1.192	1.0695		
		0.3613	0.3748	0.3234	1.3552	1.2281	1.2103	1.0939	1.2278	1.1772	1.2105	1.1143	0.916		
		0.1196	0.1446	0.1306	1.0775	1.1491	1.1926	1.0693	1.1852	1.1428	2.3865	1.7668	1.7451		
		1.3703	1.2234	1.4253	0.9673	0.9329	0.934	0.8663	0.651	0.4346	0.6368	0.5788	0.5148		
		0.7193	0.7578	0.7344	1.4005	1.5262	1.9363	2.1928	2.0191	1.4792	1.9871	1.8079	1.9818		
		1.1384	1.737	1.5625	1.0477	1.1002	0.8955	0.4951	0.576	0.5848	0.0879	0.0869	0.0883		
		
12:30	23.50	1.1196	1.1843	1.3588	0.6032	0.5157	0.4692	0.9755	0.914	0.8752	0.8126	1.1374	1.2216		
		0.8541	0.9561	0.9977	1.4577	1.7675	1.9765	0.6802	0.7181	0.6917	0.783	0.6903	0.6874		
		1.0082	0.7159	0.783	1.6937	1.4028	1.4141	0.9522	0.9878	0.9625	1.1547	1.2296	1.1029		
		0.3709	0.3846	0.3314	1.3971	1.2665	1.2472	1.1295	1.2658	1.214	1.25	1.1505	0.9449		
		0.1208	0.1464	0.1322	1.1124	1.1858	1.231	1.1038	1.224	1.1783	2.446	1.8201	1.7987		
		1.4117	1.2605	1.4707	0.9983	0.9622	0.9637	0.8917	0.6709	0.4465	0.6562	0.5965	0.5286		
		0.7409	0.7804	0.7565	1.4432	1.5715	1.9903	2.2531	2.0762	1.5256	2.0462	1.8638	2.0424		
		1.1742	1.7873	1.6079	1.0791	1.1291	0.9224	0.5085	0.5927	0.602	0.0879	0.0871	0.0884		
		
13:00	23.50	1.1517	1.2177	1.3971	0.6199	0.53	0.4822	1.0036	0.9403	0.9008	0.8366	1.1721	1.2588		
		0.8774	0.9811	1.0247	1.4975	1.8141	2.0282	0.6969	0.7374	0.7098	0.8038	0.7077	0.704		
		1.0307	0.7364	0.8052	1.7419	1.441	1.455	0.9812	1.0175	0.9919	1.189	1.2672	1.1346		
		0.3801	0.3947	0.3388	1.4392	1.3047	1.2843	1.1654	1.3039	1.2508	1.2882	1.1862	0.9729		
		0.1219	0.1481	0.1335	1.1463	1.2216	1.2685	1.1371	1.2622	1.2138	2.4986	1.8707	1.8513		
		1.4532	1.2967	1.5143	1.0288	0.991	0.9933	0.9171	0.6901	0.458	0.6753	0.6138	0.5423		
		0.7624	0.8025	0.7778	1.4851	1.6162	2.0416	2.3077	2.1315	1.5717	2.104	1.917	2.1013		
		1.2091	1.8369	1.6529	1.1107	1.1572	0.9492	0.5218	0.6091	0.619	0.0878	0.0872	0.0884		
		
13:30	23.50	1.1841	1.2508	1.4354	0.6368	0.5439	0.4948	1.0326	0.9662	0.9257	0.8604	1.2066	1.2962		
		0.8995	1.0063	1.0513	1.5364	1.8598	2.0775	0.7132	0.755	0.7253	0.8235	0.7251	0.7207		
		1.0465	0.758	0.8273	1.7875	1.4793	1.4949	1.0102	1.047	1.0196	1.223	1.3039	1.1661		
		0.3889	0.4046	0.3466	1.4798	1.3428	1.3205	1.2002	1.3414	1.2861	1.3265	1.2209	1.0011		
		0.123	0.1498	0.1348	1.1799	1.2571	1.3057	1.1705	1.2997	1.2476	2.5544	1.9197	1.9026		
		1.493	1.3327	1.5548	1.0585	1.0196	1.0222	0.9421	0.7093	0.4694	0.6941	0.6308	0.5557		
		0.7839	0.8247	0.799	1.5262	1.6599	2.0908	2.3624	2.1845	1.6156	2.1585	1.9701	2.1622		
		1.2434	1.8848	1.6971	1.1412	1.1839	0.976	0.535	0.6254	0.6359	0.0878	0.0872	0.0886		
		
14:00	23.50	1.2164	1.2841	1.4721	0.6543	0.558	0.5076	1.0606	0.9921	0.9508	0.8829	1.2402	1.3324		
		0.9222	1.0322	1.0773	1.5753	1.9058	2.1275	0.7293	0.7725	0.7421	0.8435	0.7409	0.7372		
		1.0694	0.7781	0.8494	1.8329	1.5169	1.5333	1.0393	1.0756	1.048	1.2567	1.3398	1.1978		
		0.3977	0.4144	0.3545	1.5195	1.3798	1.3551	1.2328	1.3782	1.3214	1.3639	1.2554	1.0289		
		0.124	0.1514	0.1361	1.213	1.2918	1.3428	1.2029	1.3369	1.282	2.6026	1.966	1.9515		
		1.5317	1.3681	1.5953	1.0881	1.0478	1.0505	0.9663	0.7283	0.4816	0.7133	0.6476	0.5684		
		0.8044	0.8457	0.8198	1.5672	1.7021	2.1388	2.412	2.2367	1.6589	2.2094	2.0197	2.2209		
		1.2774	1.9302	1.7399	1.1721	1.2102	1.0026	0.5481	0.6415	0.6529	0.088	0.0874	0.0887		
		
14:30	23.50	1.248	1.3177	1.5081	0.6705	0.572	0.5194	1.0879	1.0172	0.9757	0.9058	1.273	1.368		
		0.9437	1.0569	1.103	1.6132	1.9488	2.1725	0.7464	0.7899	0.7589	0.8634	0.7585	0.7529		
		1.0916	0.7977	0.8709	1.8783	1.554	1.5724	1.0681	1.1045	1.0759	1.2903	1.376	1.2292		
		0.4064	0.4245	0.3623	1.5583	1.4162	1.3906	1.2641	1.4148	1.3564	1.4009	1.2899	1.0564		
		0.1249	0.153	0.1373	1.2459	1.3266	1.38	1.2357	1.3738	1.3156	2.6525	2.0111	2.0002		
		1.57	1.4031	1.6345	1.1177	1.0761	1.0785	0.992	0.7472	0.4938	0.7321	0.6645	0.5813		
		0.8252	0.8671	0.841	1.6084	1.7446	2.1842	2.4619	2.2893	1.7028	2.2604	2.0707	2.2803		
		1.3108	1.976	1.7819	1.2023	1.2361	1.028	0.5612	0.6574	0.6693	0.0878	0.0876	0.0888		
		
15:00	23.50	1.2779	1.3495	1.5439	0.6873	0.5857	0.5319	1.1147	1.0413	1.0002	0.9282	1.3057	1.4029		
		0.9654	1.0806	1.1283	1.65	1.99	2.2176	0.7619	0.8075	0.7745	0.8816	0.7749	0.7682		
		1.1135	0.8169	0.8919	1.9207	1.5899	1.6105	1.0965	1.1326	1.1032	1.3229	1.4103	1.2598		
		0.4151	0.4347	0.3703	1.5956	1.4525	1.4246	1.2951	1.4515	1.3907	1.4377	1.3234	1.0832		
		0.1259	0.1546	0.1386	1.2774	1.3605	1.4161	1.2683	1.41	1.3488	2.6931	2.0526	2.0474		
		1.6084	1.4376	1.674	1.146	1.1036	1.1056	1.0162	0.7656	0.5052	0.7505	0.6803	0.5937		
		0.8445	0.8881	0.862	1.647	1.7864	2.23	2.5136	2.3407	1.7447	2.3108	2.1187	2.3377		
		1.3433	2.0192	1.8223	1.2315	1.2639	1.0532	0.5744	0.6731	0.6853	0.0879	0.0876	0.0889		
		
15:30	23.60	1.3066	1.3807	1.5799	0.7031	0.599	0.545	1.1419	1.066	1.0239	0.9509	1.3379	1.4381		
		0.987	1.1057	1.1544	1.6867	2.0314	2.2633	0.7771	0.8239	0.7894	0.9003	0.7914	0.7835		
		1.137	0.836	0.9126	1.9628	1.626	1.6472	1.1246	1.1594	1.1305	1.3551	1.4444	1.2901		
		0.4237	0.4451	0.3783	1.6333	1.4869	1.4587	1.3269	1.486	1.4251	1.4736	1.3558	1.1092		
		0.127	0.1564	0.1399	1.3099	1.3941	1.4525	1.3008	1.445	1.3817	2.7317	2.0958	2.0931		
		1.646	1.4726	1.7141	1.1743	1.131	1.1322	1.0402	0.7834	0.5165	0.7688	0.696	0.6064		
		0.8643	0.9092	0.8833	1.6848	1.8276	2.2756	2.5614	2.3877	1.787	2.3588	2.1644	2.3952		
		1.3765	2.0611	1.8641	1.2609	1.2905	1.0789	0.5882	0.6885	0.7012	0.0879	0.0877	0.089		
		
16:00	23.60	1.3361	1.4115	1.6151	0.7187	0.6125	0.5572	1.1687	1.0922	1.0468	0.973	1.3698	1.4727		
		1.0068	1.1302	1.179	1.7225	2.0721	2.3068	0.7921	0.8412	0.8055	0.9193	0.8076	0.7985		
		1.1604	0.8548	0.933	2.0031	1.6617	1.6833	1.1522	1.1872	1.1582	1.3874	1.4778	1.3209		
		0.4327	0.4547	0.386	1.6701	1.5202	1.4918	1.3589	1.5207	1.4591	1.5092	1.3888	1.1355		
		0.1281	0.158	0.1411	1.3412	1.4274	1.4892	1.3329	1.4807	1.4142	2.7712	2.1384	2.1378		
		1.6827	1.5055	1.7514	1.2021	1.1578	1.1591	1.064	0.8014	0.5278	0.787	0.712	0.619		
		0.8843	0.9299	0.9036	1.722	1.8666	2.3141	2.604	2.4326	1.8278	2.4046	2.2096	2.4476		
		1.408	2.1012	1.9035	1.2894	1.317	1.104	0.6022	0.7043	0.7169	0.0881	0.088	0.089		
		
16:30	23.60	1.3648	1.4419	1.6495	0.7347	0.6257	0.569	1.1949	1.1186	1.0707	0.9957	1.4014	1.5062		
		1.0278	1.1535	1.2033	1.7578	2.1119	2.3468	0.8071	0.8574	0.8203	0.938	0.8234	0.8157		
		1.1821	0.8737	0.9533	2.0416	1.6972	1.7187	1.1794	1.2139	1.1851	1.4181	1.5112	1.3509		
		0.4412	0.4638	0.3937	1.7066	1.5537	1.523	1.3907	1.5548	1.4918	1.5431	1.4209	1.1616		
		0.129	0.1597	0.1426	1.3719	1.4597	1.5237	1.3647	1.5155	1.4464	2.8098	2.1805	2.1813		
		1.7183	1.538	1.7866	1.2295	1.1845	1.1852	1.088	0.8187	0.5391	0.805	0.7278	0.6317		
		0.9039	0.9501	0.9241	1.7596	1.9062	2.3533	2.6483	2.4804	1.8687	2.4518	2.2535	2.5005		
		1.44	2.1398	1.9436	1.3183	1.3425	1.1284	0.615	0.7191	0.7323	0.0883	0.0881	0.0892		
		
17:00	23.60	1.3916	1.471	1.6828	0.7511	0.6388	0.5809	1.2199	1.1433	1.0939	1.0183	1.4319	1.5403		
		1.0486	1.1757	1.2285	1.7927	2.1492	2.3869	0.8222	0.8738	0.8359	0.9558	0.8389	0.832		
		1.2035	0.8926	0.9737	2.0811	1.7313	1.7531	1.207	1.2405	1.2126	1.4481	1.5437	1.3816		
		0.4499	0.4736	0.4019	1.742	1.5864	1.5533	1.4219	1.5875	1.5228	1.5768	1.4532	1.1873		
		0.1301	0.1613	0.144	1.4026	1.4916	1.5575	1.3959	1.55	1.4779	2.8413	2.2213	2.2242		
		1.7541	1.5703	1.8227	1.2565	1.2102	1.2112	1.1114	0.8358	0.5499	0.8227	0.7439	0.6445		
		0.9233	0.97	0.9445	1.7962	1.944	2.3935	2.6873	2.5267	1.9086	2.4934	2.2951	2.5516		
		1.4712	2.1798	1.9823	1.3461	1.3682	1.153	0.6273	0.734	0.7475	0.0884	0.0881	0.0892		
		
17:30	23.60	1.4198	1.5001	1.7152	0.7676	0.6523	0.5935	1.2452	1.1667	1.1165	1.0415	1.4642	1.5739		
		1.0694	1.1992	1.2524	1.8262	2.1865	2.4247	0.8373	0.8901	0.8507	0.9735	0.8547	0.8471		
		1.2231	0.9106	0.994	2.1185	1.7652	1.7883	1.234	1.2667	1.2391	1.4778	1.5762	1.4125		
		0.4583	0.4833	0.4092	1.7764	1.6188	1.5846	1.4531	1.6201	1.5535	1.6104	1.4843	1.2132		
		0.1312	0.163	0.1452	1.4326	1.5229	1.5921	1.4265	1.5838	1.5084	2.8663	2.2606	2.2659		
		1.7889	1.602	1.8586	1.2834	1.2361	1.2372	1.1337	0.8541	0.5604	0.841	0.7601	0.6571		
		0.9423	0.9895	0.9643	1.832	1.9811	2.4304	2.7225	2.5713	1.9473	2.5372	2.337	2.5987		
		1.5026	2.2182	2.0193	1.3739	1.394	1.1765	0.6396	0.7489	0.7629	0.0885	0.0882	0.0894		
		
18:00	23.60	1.4483	1.529	1.7471	0.7827	0.6664	0.6053	1.2701	1.1893	1.1385	1.0631	1.496	1.6057		
		1.0898	1.2221	1.2766	1.8596	2.2226	2.4627	0.8528	0.9068	0.8651	0.9914	0.8701	0.8628		
		1.2437	0.9285	1.014	2.1572	1.7991	1.8214	1.2597	1.2933	1.2668	1.5072	1.607	1.442		
		0.4665	0.4925	0.4166	1.8114	1.6518	1.6151	1.4828	1.653	1.5841	1.6431	1.5149	1.2385		
		0.1321	0.1647	0.1465	1.4624	1.5543	1.6253	1.4563	1.6165	1.5392	2.8944	2.2993	2.3047		
		1.8229	1.6325	1.8936	1.3098	1.2612	1.2635	1.157	0.8713	0.5709	0.8582	0.7759	0.6699		
		0.9609	1.0085	0.9841	1.8662	2.0165	2.4651	2.7589	2.6155	1.9859	2.5787	2.3743	2.6434		
		1.5328	2.2558	2.0557	1.4022	1.4183	1.2001	0.6523	0.7637	0.7793	0.0887	0.0883	0.0893		
		
18:30	23.60	1.4761	1.5566	1.7786	0.798	0.6779	0.6172	1.2951	1.2122	1.16	1.0838	1.5271	1.6373		
		1.1093	1.2438	1.3002	1.8927	2.2578	2.4988	0.8673	0.9226	0.8796	1.0089	0.8852	0.8774		
		1.2638	0.9462	1.0336	2.1938	1.8322	1.8544	1.2855	1.3186	1.2933	1.5362	1.6381	1.4701		
		0.4747	0.5012	0.4243	1.8454	1.6836	1.6452	1.5124	1.6848	1.6124	1.6751	1.546	1.2627		
		0.1331	0.1661	0.1479	1.4924	1.5852	1.6578	1.4872	1.6486	1.5684	2.9195	2.3342	2.3421		
		1.8562	1.6633	1.9282	1.3357	1.2866	1.2894	1.179	0.8881	0.5819	0.875	0.7925	0.6824		
		0.98	1.0278	1.0044	1.8996	2.0518	2.5005	2.7981	2.6554	2.0217	2.6228	2.4146	2.6881		
		1.5618	2.2934	2.0921	1.4289	1.4441	1.2239	0.6649	0.7795	0.7941	0.0887	0.0884	0.0895		
		
19:00	23.60	1.5035	1.583	1.8092	0.8132	0.6922	0.6293	1.3202	1.2353	1.182	1.1043	1.5555	1.6685		
		1.1293	1.2661	1.324	1.9258	2.2928	2.5334	0.8829	0.9385	0.8934	1.0272	0.9006	0.8931		
		1.2859	0.9636	1.0527	2.2296	1.8644	1.8868	1.3106	1.3439	1.3195	1.5644	1.667	1.4974		
		0.4828	0.5104	0.4326	1.8793	1.7156	1.6753	1.5419	1.7162	1.6412	1.7064	1.5757	1.2876		
		0.1342	0.1678	0.1491	1.5215	1.6145	1.6895	1.5175	1.6802	1.5984	2.9438	2.3719	2.377		
		1.8886	1.6933	1.9616	1.3621	1.3115	1.3156	1.2011	0.9047	0.592	0.8918	0.8075	0.6952		
		0.9986	1.0469	1.0238	1.9332	2.0845	2.5319	2.8362	2.6904	2.059	2.6608	2.4538	2.7331		
		1.5896	2.3288	2.1272	1.4561	1.4704	1.2477	0.6775	0.7941	0.8091	0.0889	0.0886	0.0895		
		
19:30	23.60	1.5305	1.6109	1.8407	0.8282	0.7047	0.6409	1.3441	1.2586	1.2036	1.1249	1.5844	1.7006		
		1.1502	1.2886	1.3471	1.9574	2.3277	2.5685	0.8976	0.9546	0.9086	1.0445	0.9155	0.9097		
		1.3067	0.9811	1.0721	2.2644	1.8972	1.9188	1.335	1.3706	1.345	1.593	1.6961	1.5253		
		0.4909	0.52	0.4403	1.9115	1.7477	1.704	1.571	1.7476	1.6694	1.7372	1.6057	1.3124		
		0.1351	0.1693	0.1503	1.5494	1.644	1.7207	1.5467	1.7119	1.6268	2.9491	2.4065	2.4117		
		1.9205	1.7231	1.9947	1.3871	1.336	1.3404	1.2234	0.9215	0.6014	0.9084	0.823	0.7076		
		1.017	1.0655	1.0429	1.966	2.1198	2.5638	2.8661	2.7276	2.0973	2.6991	2.4916	2.7832		
		1.6183	2.3629	2.1609	1.482	1.4936	1.271	0.6895	0.8087	0.8238	0.089	0.0887	0.0897		
		
20:00	23.60	1.5574	1.6392	1.8711	0.843	0.7171	0.6525	1.3673	1.281	1.2247	1.145	1.6135	1.7315		
		1.1703	1.3108	1.3698	1.9893	2.3616	2.6069	0.9123	0.9703	0.9237	1.0619	0.9309	0.926		
		1.3284	0.9983	1.0912	2.2997	1.9287	1.951	1.3598	1.3949	1.3706	1.6218	1.7259	1.5527		
		0.4989	0.529	0.4468	1.944	1.78	1.7339	1.6001	1.7784	1.6975	1.7692	1.635	1.3358		
		0.1361	0.171	0.1514	1.5776	1.6735	1.7519	1.5755	1.7421	1.655	2.9497	2.4396	2.4472		
		1.9515	1.7519	2.0268	1.4123	1.3605	1.3654	1.2452	0.938	0.6103	0.9246	0.8392	0.72		
		1.0345	1.0838	1.0622	1.9981	2.1516	2.5955	2.8975	2.7602	2.1315	2.7288	2.525	2.8153		
		1.6474	2.3946	2.1942	1.5087	1.5166	1.2933	0.7012	0.8234	0.8377	0.0892	0.0889	0.0898		
		
Time(hh:mm:ss)		1	2	3	4	5	6	7	8	9	10	11	12		
		81.787879	88.581818	104.235152	38.808485	31.170909	28.402424	70.339394	65.785455	61.155152	54.796364	81.135758	88.716364	
		54.106667	62.710303	64.505455	106.06303	134.934545	151.084848	36.830303	41.369697	37.849697	45.547879	37.603636	37.567273	
		114.975758	48.208485	52.370909	132.029091	105.4	106.660606	66.126061	69.544242	66.181818	83.443636	87.088485	78.847273	
		20.321212	21.350303	17.745455	104.130909	92.22303	94.700606	80.56	93.346667	88.098182	91.324848	82.128485	64.330909	
		2.210909	3.713939	-4.467879	78.362424	85.219394	89.398788	78.666667	88.689697	87.368485	201.6	139.96	132.361212	
		105.909091	93.414545	110.327273	68.569697	65.866667	67.049697	55.763636	44.178182	26.127273	41.721212	35.910303	29.237576	
		50.347879	52.744242	49.452121	107.130909	118.191515	163.989091	173.323333	156.595152	112.710303	159.802424	139.290909	142.044848	
		86.730909	142.02303	122.12	76.940606	68.130909	63.904242	30.769697	36.813333	37.315152	0.267879	0.254545	0.203636	
~End
Group:	Results OD600	1
Sample	Wells	Sample#	OD600	MeanOD600	SD
OD01	A1	1	0.070	0.075	0.004
	A2		0.078		
	A3		0.078		
OD02	B1	2	0.096	0.093	0.004
	B2		0.089		
	B3		0.093		
OD03	C1	3	0.075	0.078	0.003
	C2		0.078		
	C3		0.081		
OD04	D1	4	0.073	0.078	0.004
	D2		0.080		
	D3		0.080		
OD05	E1	5	0.073	0.080	0.008
	E2		0.080		
	E3		0.088		
OD06	F1	6	0.073	0.080	0.008
	F2		0.077		
	F3		0.088		
OD07	G1	7	0.074	0.077	0.003
	G2		0.079		
	G3		0.078		
OD08	H1	8	0.085	0.086	0.004
	H2		0.082		
	H3		0.090		
OD09	A4	9	0.072	0.068	0.005
	A5		0.069		
	A6		0.063		
OD10	B4	10	0.082	0.086	0.004
	B5		0.089		
	B6		0.087		
OD11	C4	11	0.071	0.075	0.003
	C5		0.076		
	C6		0.076		
OD12	D4	12	0.076	0.078	0.003
	D5		0.081		
	D6		0.076		
OD13	E4	13	0.083	0.080	0.003
	E5		0.078		
	E6		0.078		
OD14	F4	14	0.085	0.083	0.002
	F5		0.081		
	F6		0.084		
OD15	G4	15	0.079	0.075	0.004
	G5		0.072		
	G6		0.072		
OD16	H4	16	0.081	0.104	0.041
	H5		0.151		
	H6		0.080		
OD17	A7	17	0.070	0.068	0.006
	A8		0.073		
	A9		0.062		
OD18	B7	18	0.102	0.106	0.005
	B8		0.105		
	B9		0.111		
OD19	C7	19	0.077	0.080	0.003
	C8		0.080		
	C9		0.083		
OD20	D7	20	0.079	0.079	0.002
	D8		0.077		
	D9		0.080		
OD21	E7	21	0.078	0.080	0.001
	E8		0.081		
	E9		0.081		
OD22	F7	22	0.123	0.097	0.023
	F8		0.085		
	F9		0.082		
OD23	G7	23	0.083	0.083	0.001
	G8		0.084		
	G9		0.081		
OD24	H7	24	0.072	0.079	0.006
	H8		0.083		
	H9		0.081		
OD25	A10	25	0.075	0.077	0.001
	A11		0.078		
	A12		0.077		
OD26	B10	26	0.101	0.109	0.007
	B11		0.115		
	B12		0.111		
OD27	C10	27	0.073	0.081	0.008
	C11		0.089		
	C12		0.082		
OD28	D10	28	0.077	0.082	0.005
	D11		0.081		
	D12		0.086		
OD29	E10	29	0.079	0.087	0.014
	E11		0.079		
	E12		0.103		
OD30	F10	30	0.077	0.086	0.011
	F11		0.085		
	F12		0.098		
OD31	G10	31	0.078	0.080	0.005
	G11		0.076		
	G12		0.085		

~End
Group:	Results Kinetic	1
Sample	Wells	Sample#	V/max	Vmax/OD600	Mean	SD
Vm01	A1	1	81.788	1163.964	1213.977	110.239
	A2		88.582	1137.609		
	A3		104.235	1340.358		
Vm02	B1	2	54.107	560.885	651.643	78.697
	B2		62.710	700.935		
	B3		64.505	693.110		
Vm03	C1	3	114.976	1523.530	929.560	514.613
	C2		48.208	617.530		
	C3		52.371	647.620		
Vm04	D1	4	20.321	279.265	255.891	29.499
	D2		21.350	265.661		
	D3		17.745	222.746		
Vm05	E1	5	2.211	30.342	8.684	52.191
	E2		3.714	46.560		
	E3		-4.468	-50.848		
Vm06	F1	6	105.909	1449.486	1302.853	128.399
	F2		93.415	1210.556		
	F3		110.327	1248.517		
Vm07	G1	7	50.348	678.848	658.441	25.230
	G2		52.744	666.243		
	G3		49.452	630.231		
Vm08	H1	8	86.731	1014.792	1368.207	355.815
	H2		142.023	1726.374		
	H3		122.120	1363.454		
Vm09	A4	9	38.808	539.256	479.443	51.806
	A5		31.171	448.718		
	A6		28.402	450.356		
Vm10	B4	10	106.063	1289.259	1509.962	219.060
	B5		134.935	1513.285		
	B6		151.085	1727.342		
Vm11	C4	11	132.029	1855.210	1544.638	269.119
	C5		105.400	1380.183		
	C6		106.661	1398.522		
Vm12	D4	12	104.131	1361.782	1250.550	109.314
	D5		92.223	1143.261		
	D6		94.701	1246.607		
Vm13	E4	13	78.362	944.505	1058.988	102.499
	E5		85.219	1090.227		
	E6		89.399	1142.233		
Vm14	F4	14	68.570	807.019	806.636	5.065
	F5		65.867	811.499		
	F6		67.050	801.391		
Vm15	G4	15	107.131	1356.660	1753.335	469.955
	G5		118.192	1630.978		
	G6		163.989	2272.366		
Vm16	H4	16	76.941	946.767	733.243	255.749
	H5		68.131	449.808		
	H6		63.904	803.153		
Vm17	A7	17	70.339	1006.766	967.097	56.173
	A8		65.785	902.820		
	A9		61.155	991.705		
Vm18	B7	18	36.830	361.909	365.253	26.606
	B8		41.370	393.373		
	B9		37.850	340.477		
Vm19	C7	19	66.126	854.710	840.458	40.444
	C8		69.544	871.846		
	C9		66.182	794.818		
Vm20	D7	20	80.560	1017.600	1107.895	97.481
	D8		93.347	1211.246		
	D9		88.098	1094.841		
Vm21	E7	21	78.667	1002.549	1059.897	50.332
	E8		88.690	1096.740		
	E9		87.368	1080.402		
Vm22	F7	22	55.764	451.649	429.826	100.391
	F8		44.178	517.511		
	F9		26.127	320.318		
Vm23	G7	23	173.323	2076.558	1777.809	355.097
	G8		156.595	1871.655		
	G9		112.710	1385.215		
Vm24	H7	24	30.770	429.345	444.810	15.479
	H8		36.813	444.785		
	H9		37.315	460.302		
Vm25	A10	25	54.796	727.064	970.089	217.189
	A11		81.136	1037.984		
	A12		88.716	1145.220		
Vm26	B10	26	45.548	448.895	371.515	67.284
	B11		37.604	326.799		
	B12		37.567	338.851		
Vm27	C10	27	83.444	1149.889	1028.363	105.548
	C11		87.088	975.599		
	C12		78.847	959.602		
Vm28	D10	28	91.325	1183.475	981.025	221.770
	D11		82.128	1015.604		
	D12		64.331	743.997		
Vm29	E10	29	201.600	2559.458	1868.962	645.089
	E11		139.960	1765.685		
	E12		132.361	1281.742		
Vm30	F10	30	41.721	544.190	422.257	122.884
	F11		35.910	424.137		
	F12		29.238	298.444		
Vm31	G10	31	159.802	2049.625	1847.946	191.802
	G11		139.291	1826.367		
	G12		142.045	1667.846		

~End
Instrument type: Instrument serial number:
